clear; close all; clc;

values = [143.00;
143.00;
144.00;
143.00;
143.00;
143.00;
143.00;
143.00;
143.00;
144.00;
143.00;
144.00;
144.00;
144.00;
144.00;
144.00;
144.00;
143.00;
144.00;
144.00;
144.00;
144.00;
145.00;
144.00;
144.00;
144.00;
144.00;
144.00;
144.00;
144.00;
144.00;
144.00;
144.00;
144.00;
144.00;
144.00;
144.00;
144.00;
145.00;
144.00;
144.00;
144.00;
145.00;
145.00;
144.00;
144.00;
144.00;
145.00;
144.00;
145.00;
144.00;
182.00;
245.00;
311.00;
370.00;
419.00;
461.00;
493.00;
518.00;
537.00;
555.00;
566.00;
576.00;
585.00;
589.00;
596.00;
599.00;
604.00;
605.00;
609.00;
612.00;
613.00;
615.00;
616.00;
617.00;
619.00;
620.00;
620.00;
623.00;
623.00;
624.00;
625.00;
624.00;
626.00;
625.00;
628.00;
627.00;
629.00;
628.00;
630.00;
629.00;
630.00;
629.00;
631.00;
630.00;
632.00;
631.00;
632.00;
631.00;
633.00;
632.00;
633.00;
632.00;
633.00;
632.00;
633.00;
633.00;
635.00;
633.00;
635.00;
633.00;
635.00;
633.00;
635.00;
634.00;
636.00;
634.00;
636.00;
635.00;
636.00;
635.00;
636.00;
635.00;
636.00;
635.00;
637.00;
635.00;
637.00;
636.00;
637.00;
635.00;
637.00;
635.00;
637.00;
636.00;
638.00;
636.00;
638.00;
637.00;
638.00;
638.00;
636.00;
637.00;
638.00;
638.00;
638.00;
637.00;
638.00;
638.00;
637.00;
637.00;
638.00;
638.00;
637.00;
638.00;
638.00;
639.00;
638.00;
638.00;
638.00;
639.00;
637.00;
637.00;
638.00;
639.00;
638.00;
638.00;
639.00;
639.00;
638.00;
638.00;
639.00;
639.00;
638.00;
639.00;
639.00;
640.00;
638.00;
638.00;
639.00;
639.00;
638.00;
638.00;
639.00;
640.00;
639.00;
639.00;
640.00;
640.00;
638.00;
638.00;
640.00;
640.00;
639.00;
639.00;
640.00;
640.00;
639.00;
639.00;
640.00;
640.00;
639.00;
639.00;
640.00;
640.00;
639.00;
639.00;
640.00;
640.00;
639.00;
639.00;
640.00;
640.00;
639.00;
639.00;
640.00;
640.00;
639.00;
639.00;
640.00;
640.00;
639.00;
639.00;
641.00;
640.00;
639.00;
639.00;
640.00;
640.00;
639.00;
639.00;
640.00;
640.00;
640.00;
639.00;
641.00;
641.00;
640.00;
639.00;
640.00;
641.00;
639.00;
639.00;
640.00;
641.00;
639.00;
639.00;
640.00;
640.00;
640.00;
639.00;
641.00;
641.00;
640.00;
639.00;
641.00;
641.00;
639.00;
641.00;
641.00;
639.00;
640.00;
641.00;
641.00;
640.00;
639.00;
640.00;
640.00;
640.00;
640.00;
640.00;
641.00;
640.00;
640.00;
640.00;
642.00;
641.00;
640.00;
640.00;
641.00;
640.00;
640.00;
640.00;
641.00;
640.00;
640.00;
641.00;
641.00;
640.00;
640.00;
641.00;
641.00;
641.00;
640.00;
641.00;
641.00;
640.00;
640.00;
641.00;
641.00;
641.00;
641.00;
641.00;
642.00;
640.00;
639.00;
641.00;
641.00;
640.00;
640.00;
641.00;
642.00;
640.00;
640.00;
641.00;
642.00;
640.00;
640.00;
641.00;
641.00;
640.00;
640.00;
641.00;
641.00;
640.00;
641.00;
642.00;
641.00;
640.00;
640.00;
641.00;
642.00;
640.00;
641.00;
642.00;
641.00;
640.00;
640.00;
642.00;
642.00;
641.00;
640.00;
642.00;
641.00;
641.00;
640.00;
641.00;
641.00;
640.00;
640.00;
642.00;
641.00;
641.00;
641.00;
642.00;
641.00;
640.00;
640.00;
642.00;
641.00;
640.00;
641.00;
642.00;
641.00;
640.00;
640.00;
642.00;
641.00;
640.00;
640.00;
642.00;
641.00;
640.00;
641.00;
641.00;
641.00;
640.00;
640.00;
642.00;
642.00;
641.00;
641.00;
642.00;
641.00;
641.00;
640.00;
641.00;
641.00;
641.00;
640.00;
642.00;
641.00;
641.00;
640.00;
642.00;
641.00;
640.00;
640.00;
642.00;
642.00;
641.00;
641.00;
642.00;
642.00;
641.00;
640.00;
642.00;
642.00;
640.00;
641.00;
642.00;
642.00;
640.00;
641.00;
642.00;
642.00;
640.00;
641.00;
642.00;
642.00;
640.00;
641.00;
641.00;
641.00;
640.00;
640.00;
642.00;
642.00;
641.00;
641.00;
642.00;
642.00;
640.00;
640.00;
642.00;
641.00;
640.00;
641.00;
642.00;
642.00;
641.00;
641.00;
642.00;
641.00;
641.00;
640.00;
642.00;
642.00;
641.00;
640.00;
642.00;
642.00;
641.00;
640.00;
642.00;
641.00;
641.00;
641.00;
642.00;
642.00;
641.00;
641.00;
642.00;
642.00;
640.00;
640.00;
642.00;
642.00;
641.00;
641.00;
642.00;
642.00;
641.00;
639.00;
641.00;
642.00;
641.00;
640.00;
642.00;
642.00;
641.00;
641.00;
642.00;
641.00;
640.00;
640.00;
642.00;
642.00;
641.00;
641.00;
642.00;
642.00;
640.00;
640.00;
642.00;
642.00;
641.00;
641.00;
642.00;
642.00;
];

AR = values;

PWM = zeros(500,1);

R1 = 10;
m = -0.692;
b = 1.808;

f = R1*(5-((AR.*5)./(1023)))./((AR.*5)./(1023));
lux = 10.^((log10(f)-b)/m);

PWM(51:500) = 128;

t = linspace(0,1e6,length(PWM))';

figure
plot(t,PWM)
title('PWM step input')
figure
plot(t,AR)
title('Values from Arduino Analog Read')

figure
plot(t,lux)
title('Values LUX')

